SpectraSmart Spectrum 1.7.0.0
--------- Device Information -----------
Spectrum Name : 光谱_0
Saving Time : 2018/10/29 15:40:12
Spectro-Module Model Name :SD1220-V
Spectro-Module Serial Number :OS361AC55003554
Wavelength Start :380
Wavelength End :780
Spectrum Unit :Intensity
-----------Spectrum Setting ------------
Integration Time :60ms
Average :5
Boxcar :0
Background removal : enabled
linearity correction : enabled
Intensity correction : enabled
savitzky-golay : disabled
---------------BEGIN--------------------
Wavelength    Intensity(Counts)
380.45  3.571518E+001
381.12  3.564806E+001
381.80  7.702853E+001
382.48  1.278535E+002
383.15  1.130506E+002
383.83  1.398483E+002
384.51  6.217568E+001
385.18  9.766055E+001
385.86  5.789402E+001
386.54  2.840968E+001
387.22  5.797567E+001
387.90  9.890480E+001
388.58  5.908828E+001
389.26  1.113592E+002
389.94  4.104307E+001
390.62  1.013409E+002
391.30  4.808364E+001
391.98  6.891918E+001
392.67  3.812892E+001
393.35  7.485095E+001
394.03  6.423539E+001
394.71  4.177066E+001
395.40  4.064291E+001
396.08  7.816566E+001
396.77  5.724582E+001
397.45  1.948475E+001
398.14  1.274828E+002
398.82  1.072069E+002
399.51  9.492484E+001
400.19  5.341120E+001
400.88  6.439890E+001
401.57  7.439847E+001
402.26  5.784526E+001
402.94  3.240257E+001
403.63  2.107236E+002
404.32  2.582786E+001
405.01  6.049384E+001
405.70  4.067834E+001
406.39  6.777533E+001
407.08  5.427146E+001
407.77  6.007121E+001
408.46  9.310606E+001
409.16  5.512898E+001
409.85  1.882797E+001
410.54  5.568311E+001
411.23  8.811547E+001
411.93  8.259884E+001
412.62  6.014781E+000
413.31  3.634734E+001
414.01  6.695737E+001
414.70  4.164956E+001
415.40  6.071630E+001
416.09  2.531743E+001
416.79  7.711635E+001
417.48  8.311960E+001
418.18  4.244187E+001
418.88  5.587613E+001
419.58  5.620208E+001
420.27  4.415108E+001
420.97  8.584893E+000
421.67  4.804469E+001
422.37  5.363450E+001
423.07  1.604038E+002
423.77  1.033642E+002
424.47  6.475928E+001
425.17  9.915485E+001
425.87  7.880845E+001
426.57  1.200627E+002
427.27  6.268612E+001
427.98  6.229705E+001
428.68  8.649132E-001
429.38  6.332888E+001
430.09  6.602643E+001
430.79  1.409034E+002
431.49  7.367721E+001
432.20  4.229296E+001
432.90  5.502164E+001
433.61  7.763152E+001
434.31  6.237945E+001
435.02  5.105169E+001
435.73  1.272305E+002
436.43  1.081899E+002
437.14  1.580408E+002
437.85  9.293600E+001
438.56  7.609721E+001
439.26  8.370718E+001
439.97  1.102035E+002
440.68  8.098428E+001
441.39  9.040398E+001
442.10  6.360753E+001
442.81  1.148418E+002
443.52  1.592523E+002
444.23  8.869814E+001
444.95  1.227109E+002
445.66  8.501453E+001
446.37  1.014010E+002
447.08  1.110016E+002
447.79  5.897393E+001
448.51  5.543180E+001
449.22  5.785149E+001
449.94  7.093643E+001
450.65  5.574204E+001
451.37  6.247378E+001
452.08  9.541160E+001
452.80  5.355355E+001
453.51  7.909184E+001
454.23  5.637814E+001
454.95  6.040260E+001
455.66  9.323057E+001
456.38  5.952206E+001
457.10  8.717750E+001
457.82  7.326580E+001
458.54  6.860732E+001
459.26  1.020786E+002
459.97  1.510915E+002
460.69  1.020192E+002
461.41  1.086288E+002
462.14  1.219769E+002
462.86  1.206657E+002
463.58  1.080279E+002
464.30  6.530045E+001
465.02  7.436703E+001
465.74  1.158425E+002
466.47  7.453034E+001
467.19  1.192535E+002
467.91  1.228398E+002
468.64  1.104249E+002
469.36  1.425038E+002
470.09  1.214485E+002
470.81  1.576814E+002
471.54  1.576700E+002
472.26  1.599817E+002
472.99  1.573240E+002
473.72  2.042887E+002
474.44  1.850787E+002
475.17  1.788553E+002
475.90  2.055643E+002
476.63  2.418777E+002
477.36  2.668437E+002
478.09  2.756224E+002
478.82  2.928903E+002
479.55  3.131718E+002
480.28  3.275909E+002
481.01  3.581116E+002
481.74  3.804196E+002
482.47  4.460581E+002
483.20  5.051745E+002
483.93  4.910822E+002
484.66  5.817557E+002
485.40  6.411977E+002
486.13  6.835780E+002
486.86  8.029296E+002
487.60  8.325535E+002
488.33  8.836199E+002
489.07  1.010850E+003
489.80  1.081905E+003
490.54  1.191133E+003
491.27  1.295839E+003
492.01  1.467265E+003
492.74  1.543295E+003
493.48  1.714571E+003
494.22  1.914329E+003
494.96  2.117600E+003
495.69  2.388488E+003
496.43  2.655384E+003
497.17  2.851719E+003
497.91  3.109954E+003
498.65  3.464934E+003
499.39  3.813706E+003
500.13  4.208338E+003
500.87  4.617429E+003
501.61  5.068925E+003
502.35  5.514057E+003
503.09  6.116840E+003
503.84  6.720419E+003
504.58  7.279671E+003
505.32  7.989158E+003
506.06  8.836869E+003
506.81  9.677767E+003
507.55  1.060385E+004
508.30  1.123619E+004
509.04  1.235678E+004
509.79  1.331247E+004
510.53  1.447965E+004
511.28  1.561952E+004
512.02  1.665096E+004
512.77  1.779400E+004
513.52  1.945744E+004
514.26  2.061200E+004
515.01  2.126557E+004
515.76  2.262692E+004
516.51  2.393009E+004
517.25  2.465637E+004
518.00  2.558186E+004
518.75  2.654954E+004
519.50  2.754562E+004
520.25  2.810626E+004
521.00  2.880994E+004
521.75  2.889977E+004
522.51  2.899163E+004
523.26  2.936085E+004
524.01  2.883310E+004
524.76  2.851652E+004
525.51  2.850464E+004
526.27  2.856950E+004
527.02  2.801742E+004
527.77  2.733733E+004
528.53  2.685847E+004
529.28  2.611857E+004
530.04  2.533953E+004
530.79  2.446423E+004
531.55  2.383283E+004
532.30  2.310393E+004
533.06  2.227819E+004
533.82  2.156829E+004
534.57  2.046893E+004
535.33  1.924759E+004
536.09  1.858089E+004
536.85  1.763204E+004
537.60  1.716425E+004
538.36  1.632739E+004
539.12  1.574769E+004
539.88  1.479604E+004
540.64  1.409675E+004
541.40  1.356488E+004
542.16  1.319010E+004
542.92  1.260394E+004
543.68  1.228655E+004
544.45  1.163481E+004
545.21  1.092609E+004
545.97  1.051146E+004
546.73  9.929038E+003
547.50  9.686336E+003
548.26  9.055063E+003
549.02  8.777879E+003
549.79  8.398769E+003
550.55  8.104775E+003
551.32  7.648819E+003
552.08  7.116075E+003
552.85  6.852424E+003
553.61  6.479066E+003
554.38  6.114035E+003
555.15  5.723329E+003
555.91  5.487782E+003
556.68  5.245835E+003
557.45  5.007320E+003
558.21  4.722957E+003
558.98  4.516769E+003
559.75  4.229883E+003
560.52  4.030751E+003
561.29  3.737072E+003
562.06  3.612718E+003
562.83  3.427268E+003
563.60  3.268322E+003
564.37  3.026624E+003
565.14  2.928266E+003
565.91  2.789487E+003
566.69  2.658058E+003
567.46  2.502239E+003
568.23  2.424868E+003
569.00  2.295546E+003
569.78  2.189638E+003
570.55  2.027039E+003
571.32  1.957271E+003
572.10  1.850824E+003
572.87  1.747411E+003
573.65  1.709261E+003
574.42  1.562710E+003
575.20  1.543276E+003
575.97  1.407701E+003
576.75  1.380717E+003
577.53  1.313989E+003
578.30  1.210715E+003
579.08  1.180927E+003
579.86  1.091094E+003
580.64  1.056265E+003
581.42  9.730748E+002
582.19  9.087617E+002
582.97  8.532034E+002
583.75  8.274288E+002
584.53  7.575312E+002
585.31  8.020634E+002
586.09  7.084879E+002
586.87  6.724622E+002
587.65  6.394383E+002
588.44  6.045096E+002
589.22  5.721069E+002
590.00  5.169282E+002
590.78  5.122581E+002
591.57  4.949495E+002
592.35  4.505201E+002
593.13  4.606818E+002
593.92  4.439357E+002
594.70  4.215075E+002
595.48  3.939218E+002
596.27  3.898220E+002
597.05  3.543008E+002
597.84  3.657330E+002
598.63  3.354141E+002
599.41  2.975876E+002
600.20  2.949160E+002
600.99  2.930385E+002
601.77  3.133489E+002
602.56  2.734878E+002
603.35  2.380851E+002
604.14  2.281653E+002
604.93  2.655883E+002
605.71  2.352887E+002
606.50  2.073569E+002
607.29  1.729245E+002
608.08  2.077661E+002
608.87  1.817424E+002
609.66  1.668110E+002
610.45  1.807778E+002
611.25  1.660829E+002
612.04  1.639924E+002
612.83  1.789925E+002
613.62  1.321539E+002
614.41  1.453518E+002
615.21  1.447711E+002
616.00  1.144736E+002
616.79  1.158505E+002
617.59  1.147856E+002
618.38  1.165091E+002
619.18  1.065953E+002
619.97  6.345391E+001
620.77  1.159770E+002
621.56  6.060390E+001
622.36  8.798314E+001
623.15  8.669957E+001
623.95  7.451133E+001
624.75  7.217400E+001
625.54  6.066832E+001
626.34  7.522149E+001
627.14  9.976877E+001
627.94  6.122186E+001
628.74  5.314562E+001
629.54  3.304892E+001
630.33  1.236763E+002
631.13  1.052455E+002
631.93  6.162352E+001
632.73  4.336605E+001
633.53  3.370707E+001
634.34  4.479845E+001
635.14  4.056239E+001
635.94  3.730715E+001
636.74  6.490457E+001
637.54  1.080419E+001
638.34  3.971988E+001
639.15  2.571091E+001
639.95  7.855518E+000
640.75  2.122869E+001
641.56  2.835190E+001
642.36  3.349813E+001
643.17  3.863077E+001
643.97  1.388265E+001
644.77  4.649858E+001
645.58  5.024665E-001
646.39  2.571908E+001
647.19  2.152031E+001
648.00  1.664399E+001
648.80  5.024100E-001
649.61  2.585254E+001
650.42  2.946452E+001
651.23  2.419914E+001
652.03  1.116291E+001
652.84  4.255752E+001
653.65  1.909815E+001
654.46  3.681110E+001
655.27  5.054762E-001
656.08  2.181934E+001
656.89  2.926796E+001
657.70  1.042562E+001
658.51  1.012479E+001
659.32  5.062398E-001
660.13  1.979345E+001
660.94  5.041776E-001
661.75  5.045927E-001
662.56  9.933932E+000
663.38  5.064845E-001
664.19  2.600056E+001
665.00  5.054915E-001
665.82  1.339031E+001
666.63  1.892659E+001
667.44  3.405186E+001
668.26  7.145533E+000
669.07  3.775851E+000
669.89  2.862086E+001
670.70  1.978172E+001
671.52  6.661258E+001
672.33  7.409786E+000
673.15  9.708149E+000
673.97  1.054612E+001
674.78  5.262006E-001
675.60  5.223319E+000
676.42  5.295686E-001
677.23  1.207094E+001
678.05  2.220735E+001
678.87  5.327744E-001
679.69  5.347762E-001
680.51  5.330387E-001
681.33  5.314746E-001
682.15  3.738242E+001
682.97  5.368461E+001
683.79  4.078912E+001
684.61  1.091962E+001
685.43  1.447806E+001
686.25  3.561184E+001
687.07  3.488560E+001
687.89  6.309967E+000
688.71  5.404251E-001
689.53  5.432193E-001
690.36  1.726738E+001
691.18  5.504559E-001
692.00  5.547761E-001
692.83  5.580827E-001
693.65  5.629354E-001
694.47  2.942143E+001
695.30  1.804814E+001
696.12  1.312183E+001
696.95  5.861303E-001
697.77  5.891169E-001
698.60  1.646821E+001
699.42  6.001174E-001
700.25  9.313144E+000
701.08  5.221679E+000
701.90  6.104504E-001
702.73  6.138119E-001
703.56  6.174802E-001
704.39  2.966733E+000
705.21  2.739783E+001
706.04  1.477027E+001
706.87  3.464628E+001
707.70  6.290792E-001
708.53  6.351273E-001
709.36  6.368782E-001
710.19  6.396094E-001
711.02  6.413878E-001
711.85  6.435269E-001
712.68  2.062620E+001
713.51  2.675245E+001
714.34  6.516109E-001
715.17  6.553902E-001
716.00  6.603386E-001
716.84  3.527437E+001
717.67  6.722960E-001
718.50  6.759947E-001
719.33  6.785646E-001
720.17  1.312843E+001
721.00  4.580874E+001
721.83  7.021320E-001
722.67  7.069770E-001
723.50  1.046872E+001
724.34  7.253710E-001
725.17  7.233618E-001
726.01  1.001543E+001
726.84  4.864226E+001
727.68  3.431544E+001
728.51  7.479605E-001
729.35  7.540971E-001
730.19  2.295119E+001
731.02  7.631769E-001
731.86  2.850186E+001
732.70  7.745870E-001
733.54  7.853976E-001
734.38  7.850289E-001
735.21  3.765274E+001
736.05  7.971905E-001
736.89  1.356226E+001
737.73  1.122397E+001
738.57  8.051120E-001
739.41  4.225838E+001
740.25  1.416425E+001
741.09  8.178334E-001
741.93  8.219392E-001
742.77  8.248546E+000
743.61  8.375934E-001
744.46  3.690811E+000
745.30  4.576846E+001
746.14  8.599447E-001
746.98  7.033137E+000
747.83  8.800985E-001
748.67  2.819462E+001
749.51  2.782456E-001
750.36  3.696989E+001
751.20  9.174015E-001
752.04  9.320954E-001
752.89  9.386770E-001
753.73  9.485249E-001
754.58  8.712247E+001
755.42  4.014216E+001
756.27  6.313574E+000
757.11  3.173584E+000
757.96  8.281651E+000
758.81  1.573744E+001
759.65  1.021598E+000
760.50  1.030723E+000
761.35  1.883623E+000
762.19  3.851401E+001
763.04  8.059030E+000
763.89  1.068067E+000
764.74  1.077659E+000
765.59  4.689147E+001
766.44  1.092821E+000
767.29  1.101778E+000
768.13  1.114131E+000
768.98  7.851133E+001
769.83  1.143373E+000
770.68  1.151575E+000
771.53  3.844126E+001
772.39  3.897522E+001
773.24  4.786688E+000
774.09  1.214854E+000
774.94  1.235793E+000
775.79  1.249619E+000
776.64  1.268242E+000
777.50  1.283295E+000
778.35  4.785789E+001
779.20  1.028509E+002
